ENLIGHTEN Version,2.3.4
Measurement ID,20210329-094755-288958-WP-00686
Serial Number,WP-00686
Model,SIG-VIS-385
Detector,IMX385
Label,09:47:55 WP-00686
Declared Match,
Declared Score,0
Scan Averaging,1
Boxcar,0
Technique,Scope
Baseline Correction Algo,
ROI Pixel Start,0
ROI Pixel End,0
Slit Width,25
Vignetted,False
Interpolated,False
Wavenumber Correction,0
Raman Intensity Corrected,False
Deconvolved,False
Integration Time,11
Timestamp,2021-03-29 09:47:55.288958
Note,
Temperature,0
CCD C0,269.2947082519531
CCD C1,0.45394909381866455
CCD C2,-0.00016288440383505076
CCD C3,7.102651977675123e-08
CCD Offset,0
CCD Gain,1.9
Laser Wavelength,0.0
Laser Enable,False
Laser Power,100
Laser Temperature,0
Pixel Count,1952

Pixel,Wavelength,Processed
0,269.29,1095.00
1,269.75,1432.00
2,270.20,1404.00
3,270.66,1351.00
4,271.11,1370.00
5,271.56,1386.00
6,272.01,1360.00
7,272.46,1380.00
8,272.92,1378.00
9,273.37,1388.00
10,273.82,1404.00
11,274.27,1405.00
12,274.72,1428.00
13,275.17,1382.00
14,275.62,1363.00
15,276.07,1380.00
16,276.52,1387.00
17,276.97,1396.00
18,277.41,1388.00
19,277.86,1405.00
20,278.31,1374.00
21,278.76,1367.00
22,279.20,1402.00
23,279.65,1402.00
24,280.10,1407.00
25,280.54,1400.00
26,280.99,1437.00
27,281.43,1430.00
28,281.88,1402.00
29,282.32,1396.00
30,282.77,1386.00
31,283.21,1405.00
32,283.66,1386.00
33,284.10,1408.00
34,284.54,1449.00
35,284.99,1401.00
36,285.43,1395.00
37,285.87,1419.00
38,286.31,1436.00
39,286.76,1417.00
40,287.20,1413.00
41,287.64,1435.00
42,288.08,1456.00
43,288.52,1466.00
44,288.96,1456.00
45,289.40,1462.00
46,289.84,1467.00
47,290.28,1480.00
48,290.72,1452.00
49,291.16,1419.00
50,291.59,1429.00
51,292.03,1518.00
52,292.47,1551.00
53,292.91,1479.00
54,293.34,1446.00
55,293.78,1481.00
56,294.22,1492.00
57,294.65,1461.00
58,295.09,1436.00
59,295.53,1480.00
60,295.96,1470.00
61,296.40,1432.00
62,296.83,1478.00
63,297.26,1523.00
64,297.70,1510.00
65,298.13,1500.00
66,298.57,1444.00
67,299.00,1427.00
68,299.43,1454.00
69,299.87,1445.00
70,300.30,1452.00
71,300.73,1435.00
72,301.16,1408.00
73,301.59,1408.00
74,302.02,1424.00
75,302.45,1438.00
76,302.89,1456.00
77,303.32,1416.00
78,303.75,1423.00
79,304.18,1422.00
80,304.60,1423.00
81,305.03,1461.00
82,305.46,1475.00
83,305.89,1503.00
84,306.32,1459.00
85,306.75,1434.00
86,307.17,1478.00
87,307.60,1506.00
88,308.03,1453.00
89,308.46,1427.00
90,308.88,1481.00
91,309.31,1478.00
92,309.73,1447.00
93,310.16,1434.00
94,310.59,1452.00
95,311.01,1457.00
96,311.44,1436.00
97,311.86,1474.00
98,312.28,1481.00
99,312.71,1442.00
100,313.13,1420.00
101,313.56,1424.00
102,313.98,1458.00
103,314.40,1492.00
104,314.82,1491.00
105,315.25,1467.00
106,315.67,1504.00
107,316.09,1541.00
108,316.51,1503.00
109,316.93,1495.00
110,317.35,1479.00
111,317.77,1434.00
112,318.19,1484.00
113,318.61,1524.00
114,319.03,1507.00
115,319.45,1463.00
116,319.87,1427.00
117,320.29,1463.00
118,320.71,1513.00
119,321.13,1504.00
120,321.55,1454.00
121,321.96,1457.00
122,322.38,1478.00
123,322.80,1470.00
124,323.22,1445.00
125,323.63,1468.00
126,324.05,1494.00
127,324.46,1489.00
128,324.88,1497.00
129,325.30,1534.00
130,325.71,1561.00
131,326.13,1495.00
132,326.54,1450.00
133,326.96,1474.00
134,327.37,1524.00
135,327.78,1557.00
136,328.20,1519.00
137,328.61,1488.00
138,329.02,1468.00
139,329.44,1464.00
140,329.85,1486.00
141,330.26,1486.00
142,330.67,1529.00
143,331.09,1547.00
144,331.50,1534.00
145,331.91,1485.00
146,332.32,1484.00
147,332.73,1521.00
148,333.14,1475.00
149,333.55,1474.00
150,333.96,1483.00
151,334.37,1437.00
152,334.78,1461.00
153,335.19,1507.00
154,335.60,1485.00
155,336.01,1496.00
156,336.42,1516.00
157,336.82,1495.00
158,337.23,1498.00
159,337.64,1518.00
160,338.05,1496.00
161,338.45,1421.00
162,338.86,1447.00
163,339.27,1530.00
164,339.67,1513.00
165,340.08,1511.00
166,340.49,1559.00
167,340.89,1553.00
168,341.30,1510.00
169,341.70,1521.00
170,342.11,1478.00
171,342.51,1474.00
172,342.92,1547.00
173,343.32,1540.00
174,343.72,1536.00
175,344.13,1535.00
176,344.53,1508.00
177,344.93,1502.00
178,345.34,1501.00
179,345.74,1466.00
180,346.14,1463.00
181,346.54,1513.00
182,346.95,1556.00
183,347.35,1521.00
184,347.75,1511.00
185,348.15,1568.00
186,348.55,1566.00
187,348.95,1555.00
188,349.35,1517.00
189,349.75,1495.00
190,350.15,1532.00
191,350.55,1561.00
192,350.95,1542.00
193,351.35,1542.00
194,351.75,1528.00
195,352.15,1516.00
196,352.55,1529.00
197,352.94,1542.00
198,353.34,1566.00
199,353.74,1611.00
200,354.14,1601.00
201,354.53,1488.00
202,354.93,1479.00
203,355.33,1554.00
204,355.72,1550.00
205,356.12,1530.00
206,356.52,1532.00
207,356.91,1505.00
208,357.31,1503.00
209,357.70,1516.00
210,358.10,1558.00
211,358.49,1578.00
212,358.89,1534.00
213,359.28,1527.00
214,359.68,1518.00
215,360.07,1518.00
216,360.46,1590.00
217,360.86,1519.00
218,361.25,1463.00
219,361.64,1536.00
220,362.04,1529.00
221,362.43,1437.00
222,362.82,1426.00
223,363.21,1499.00
224,363.60,1542.00
225,364.00,1611.00
226,364.39,1544.00
227,364.78,1494.00
228,365.17,1515.00
229,365.56,1540.00
230,365.95,1569.00
231,366.34,1509.00
232,366.73,1510.00
233,367.12,1513.00
234,367.51,1518.00
235,367.90,1530.00
236,368.29,1534.00
237,368.68,1547.00
238,369.07,1532.00
239,369.45,1513.00
240,369.84,1527.00
241,370.23,1553.00
242,370.62,1540.00
243,371.01,1576.00
244,371.39,1559.00
245,371.78,1497.00
246,372.17,1551.00
247,372.55,1562.00
248,372.94,1544.00
249,373.33,1521.00
250,373.71,1493.00
251,374.10,1494.00
252,374.48,1532.00
253,374.87,1555.00
254,375.25,1541.00
255,375.64,1553.00
256,376.02,1552.00
257,376.41,1529.00
258,376.79,1543.00
259,377.18,1546.00
260,377.56,1536.00
261,377.94,1564.00
262,378.33,1548.00
263,378.71,1539.00
264,379.09,1576.00
265,379.47,1588.00
266,379.86,1540.00
267,380.24,1522.00
268,380.62,1548.00
269,381.00,1516.00
270,381.38,1496.00
271,381.77,1490.00
272,382.15,1467.00
273,382.53,1511.00
274,382.91,1536.00
275,383.29,1510.00
276,383.67,1520.00
277,384.05,1563.00
278,384.43,1590.00
279,384.81,1571.00
280,385.19,1543.00
281,385.57,1520.00
282,385.95,1520.00
283,386.33,1503.00
284,386.71,1515.00
285,387.08,1480.00
286,387.46,1462.00
287,387.84,1547.00
288,388.22,1550.00
289,388.60,1502.00
290,388.97,1524.00
291,389.35,1568.00
292,389.73,1537.00
293,390.10,1534.00
294,390.48,1517.00
295,390.86,1507.00
296,391.23,1588.00
297,391.61,1583.00
298,391.99,1526.00
299,392.36,1577.00
300,392.74,1582.00
301,393.11,1549.00
302,393.49,1562.00
303,393.86,1572.00
304,394.24,1572.00
305,394.61,1550.00
306,394.99,1529.00
307,395.36,1519.00
308,395.73,1516.00
309,396.11,1533.00
310,396.48,1523.00
311,396.86,1539.00
312,397.23,1543.00
313,397.60,1540.00
314,397.97,1586.00
315,398.35,1546.00
316,398.72,1549.00
317,399.09,1557.00
318,399.46,1542.00
319,399.83,1579.00
320,400.21,1583.00
321,400.58,1562.00
322,400.95,1575.00
323,401.32,1591.00
324,401.69,1613.00
325,402.06,1553.00
326,402.43,1491.00
327,402.80,1562.00
328,403.17,1590.00
329,403.54,1524.00
330,403.91,1493.00
331,404.28,1521.00
332,404.65,1561.00
333,405.02,1606.00
334,405.39,1597.00
335,405.76,1547.00
336,406.13,1534.00
337,406.50,1578.00
338,406.86,1598.00
339,407.23,1574.00
340,407.60,1522.00
341,407.97,1557.00
342,408.33,1582.00
343,408.70,1566.00
344,409.07,1626.00
345,409.44,1587.00
346,409.80,1487.00
347,410.17,1507.00
348,410.54,1582.00
349,410.90,1605.00
350,411.27,1589.00
351,411.63,1593.00
352,412.00,1592.00
353,412.37,1594.00
354,412.73,1580.00
355,413.10,1569.00
356,413.46,1571.00
357,413.83,1604.00
358,414.19,1633.00
359,414.56,1581.00
360,414.92,1575.00
361,415.28,1565.00
362,415.65,1536.00
363,416.01,1544.00
364,416.38,1537.00
365,416.74,1521.00
366,417.10,1559.00
367,417.47,1589.00
368,417.83,1600.00
369,418.19,1604.00
370,418.55,1556.00
371,418.92,1548.00
372,419.28,1593.00
373,419.64,1590.00
374,420.00,1559.00
375,420.37,1586.00
376,420.73,1583.00
377,421.09,1554.00
378,421.45,1575.00
379,421.81,1614.00
380,422.17,1637.00
381,422.53,1622.00
382,422.89,1599.00
383,423.25,1571.00
384,423.61,1585.00
385,423.97,1595.00
386,424.33,1539.00
387,424.69,1522.00
388,425.05,1548.00
389,425.41,1622.00
390,425.77,1647.00
391,426.13,1590.00
392,426.49,1621.00
393,426.85,1646.00
394,427.21,1648.00
395,427.57,1677.00
396,427.93,1658.00
397,428.28,1623.00
398,428.64,1572.00
399,429.00,1619.00
400,429.36,1628.00
401,429.72,1634.00
402,430.07,1724.00
403,430.43,1691.00
404,430.79,1690.00
405,431.15,1686.00
406,431.50,1703.00
407,431.86,1633.00
408,432.22,1604.00
409,432.57,1654.00
410,432.93,1646.00
411,433.28,1664.00
412,433.64,1654.00
413,434.00,1674.00
414,434.35,1687.00
415,434.71,1665.00
416,435.06,1654.00
417,435.42,1662.00
418,435.77,1664.00
419,436.13,1692.00
420,436.48,1756.00
421,436.84,1783.00
422,437.19,1746.00
423,437.55,1703.00
424,437.90,1759.00
425,438.25,1762.00
426,438.61,1673.00
427,438.96,1626.00
428,439.32,1660.00
429,439.67,1715.00
430,440.02,1695.00
431,440.38,1701.00
432,440.73,1719.00
433,441.08,1710.00
434,441.43,1717.00
435,441.79,1705.00
436,442.14,1690.00
437,442.49,1666.00
438,442.84,1647.00
439,443.20,1652.00
440,443.55,1711.00
441,443.90,1772.00
442,444.25,1757.00
443,444.60,1690.00
444,444.95,1664.00
445,445.31,1726.00
446,445.66,1751.00
447,446.01,1680.00
448,446.36,1665.00
449,446.71,1725.00
450,447.06,1759.00
451,447.41,1725.00
452,447.76,1746.00
453,448.11,1746.00
454,448.46,1777.00
455,448.81,1735.00
456,449.16,1737.00
457,449.51,1780.00
458,449.86,1781.00
459,450.21,1800.00
460,450.56,1759.00
461,450.91,1734.00
462,451.26,1801.00
463,451.61,1873.00
464,451.95,1987.00
465,452.30,1945.00
466,452.65,1969.00
467,453.00,1928.00
468,453.35,1995.00
469,453.70,2040.00
470,454.04,2046.00
471,454.39,2042.00
472,454.74,2101.00
473,455.09,2087.00
474,455.43,2134.00
475,455.78,2196.00
476,456.13,2317.00
477,456.48,2279.00
478,456.82,2325.00
479,457.17,2328.00
480,457.52,2359.00
481,457.86,2406.00
482,458.21,2488.00
483,458.56,2478.00
484,458.90,2533.00
485,459.25,2586.00
486,459.59,2663.00
487,459.94,2638.00
488,460.29,2807.00
489,460.63,2866.00
490,460.98,2988.00
491,461.32,2918.00
492,461.67,2997.00
493,462.01,3035.00
494,462.36,3149.00
495,462.70,3143.00
496,463.05,3121.00
497,463.39,3182.00
498,463.74,3182.00
499,464.08,3111.00
500,464.43,3050.00
501,464.77,3051.00
502,465.11,2967.00
503,465.46,2983.00
504,465.80,2878.00
505,466.15,2837.00
506,466.49,2658.00
507,466.83,2642.00
508,467.18,2531.00
509,467.52,2568.00
510,467.86,2482.00
511,468.21,2412.00
512,468.55,2400.00
513,468.89,2432.00
514,469.24,2393.00
515,469.58,2381.00
516,469.92,2347.00
517,470.26,2362.00
518,470.61,2353.00
519,470.95,2339.00
520,471.29,2277.00
521,471.63,2272.00
522,471.98,2300.00
523,472.32,2300.00
524,472.66,2313.00
525,473.00,2316.00
526,473.34,2254.00
527,473.68,2333.00
528,474.03,2389.00
529,474.37,2301.00
530,474.71,2264.00
531,475.05,2273.00
532,475.39,2224.00
533,475.73,2253.00
534,476.07,2275.00
535,476.41,2268.00
536,476.75,2234.00
537,477.09,2249.00
538,477.43,2266.00
539,477.77,2281.00
540,478.11,2285.00
541,478.45,2205.00
542,478.79,2193.00
543,479.13,2226.00
544,479.47,2232.00
545,479.81,2259.00
546,480.15,2264.00
547,480.49,2266.00
548,480.83,2252.00
549,481.17,2239.00
550,481.51,2236.00
551,481.85,2240.00
552,482.19,2229.00
553,482.53,2248.00
554,482.87,2272.00
555,483.21,2249.00
556,483.54,2248.00
557,483.88,2254.00
558,484.22,2217.00
559,484.56,2205.00
560,484.90,2238.00
561,485.24,2238.00
562,485.58,2221.00
563,485.91,2211.00
564,486.25,2232.00
565,486.59,2219.00
566,486.93,2230.00
567,487.27,2276.00
568,487.60,2219.00
569,487.94,2183.00
570,488.28,2234.00
571,488.62,2274.00
572,488.95,2264.00
573,489.29,2291.00
574,489.63,2268.00
575,489.96,2241.00
576,490.30,2259.00
577,490.64,2289.00
578,490.98,2300.00
579,491.31,2342.00
580,491.65,2326.00
581,491.99,2297.00
582,492.32,2258.00
583,492.66,2301.00
584,493.00,2315.00
585,493.33,2278.00
586,493.67,2331.00
587,494.00,2320.00
588,494.34,2319.00
589,494.68,2378.00
590,495.01,2320.00
591,495.35,2302.00
592,495.68,2345.00
593,496.02,2298.00
594,496.36,2278.00
595,496.69,2337.00
596,497.03,2345.00
597,497.36,2347.00
598,497.70,2325.00
599,498.03,2326.00
600,498.37,2386.00
601,498.70,2376.00
602,499.04,2310.00
603,499.37,2366.00
604,499.71,2495.00
605,500.04,2497.00
606,500.38,2451.00
607,500.71,2474.00
608,501.05,2560.00
609,501.38,2570.00
610,501.72,2565.00
611,502.05,2654.00
612,502.38,2769.00
613,502.72,2741.00
614,503.05,2800.00
615,503.39,2943.00
616,503.72,3062.00
617,504.06,3093.00
618,504.39,3203.00
619,504.72,3277.00
620,505.06,3377.00
621,505.39,3470.00
622,505.73,3709.00
623,506.06,3845.00
624,506.39,4061.00
625,506.73,4187.00
626,507.06,4383.00
627,507.39,4552.00
628,507.73,4920.00
629,508.06,5161.00
630,508.39,5433.00
631,508.73,5498.00
632,509.06,5818.00
633,509.39,6018.00
634,509.73,6300.00
635,510.06,6431.00
636,510.39,6722.00
637,510.73,6925.00
638,511.06,7143.00
639,511.39,7280.00
640,511.72,7475.00
641,512.06,7669.00
642,512.39,7767.00
643,512.72,7737.00
644,513.05,7815.00
645,513.39,7867.00
646,513.72,7865.00
647,514.05,7901.00
648,514.38,7846.00
649,514.72,7815.00
650,515.05,7840.00
651,515.38,7758.00
652,515.71,7590.00
653,516.05,7643.00
654,516.38,7493.00
655,516.71,7361.00
656,517.04,7278.00
657,517.37,7252.00
658,517.70,7165.00
659,518.04,7107.00
660,518.37,6901.00
661,518.70,6772.00
662,519.03,6585.00
663,519.36,6546.00
664,519.70,6397.00
665,520.03,6282.00
666,520.36,6164.00
667,520.69,6132.00
668,521.02,5897.00
669,521.35,5786.00
670,521.68,5668.00
671,522.02,5576.00
672,522.35,5371.00
673,522.68,5246.00
674,523.01,5048.00
675,523.34,4921.00
676,523.67,4772.00
677,524.00,4652.00
678,524.33,4491.00
679,524.66,4453.00
680,525.00,4271.00
681,525.33,4126.00
682,525.66,3919.00
683,525.99,3834.00
684,526.32,3676.00
685,526.65,3552.00
686,526.98,3415.00
687,527.31,3377.00
688,527.64,3266.00
689,527.97,3222.00
690,528.30,3107.00
691,528.63,3050.00
692,528.96,3008.00
693,529.29,2944.00
694,529.63,2893.00
695,529.96,2868.00
696,530.29,2821.00
697,530.62,2760.00
698,530.95,2702.00
699,531.28,2661.00
700,531.61,2598.00
701,531.94,2623.00
702,532.27,2628.00
703,532.60,2559.00
704,532.93,2499.00
705,533.26,2514.00
706,533.59,2528.00
707,533.92,2553.00
708,534.25,2513.00
709,534.58,2453.00
710,534.91,2467.00
711,535.24,2520.00
712,535.57,2503.00
713,535.90,2455.00
714,536.23,2426.00
715,536.56,2415.00
716,536.89,2465.00
717,537.22,2496.00
718,537.55,2439.00
719,537.88,2420.00
720,538.21,2436.00
721,538.54,2444.00
722,538.87,2458.00
723,539.20,2406.00
724,539.53,2316.00
725,539.86,2369.00
726,540.19,2442.00
727,540.52,2428.00
728,540.85,2395.00
729,541.18,2308.00
730,541.51,2296.00
731,541.84,2408.00
732,542.17,2427.00
733,542.50,2424.00
734,542.83,2418.00
735,543.16,2425.00
736,543.48,2451.00
737,543.81,2386.00
738,544.14,2305.00
739,544.47,2326.00
740,544.80,2347.00
741,545.13,2330.00
742,545.46,2310.00
743,545.79,2292.00
744,546.12,2311.00
745,546.45,2344.00
746,546.78,2348.00
747,547.11,2339.00
748,547.44,2300.00
749,547.77,2294.00
750,548.10,2291.00
751,548.43,2289.00
752,548.76,2295.00
753,549.09,2288.00
754,549.42,2297.00
755,549.75,2265.00
756,550.08,2256.00
757,550.40,2249.00
758,550.73,2253.00
759,551.06,2282.00
760,551.39,2225.00
761,551.72,2228.00
762,552.05,2285.00
763,552.38,2227.00
764,552.71,2234.00
765,553.04,2321.00
766,553.37,2286.00
767,553.70,2360.00
768,554.03,2386.00
769,554.36,2359.00
770,554.69,2416.00
771,555.02,2406.00
772,555.35,2402.00
773,555.68,2442.00
774,556.01,2552.00
775,556.33,2607.00
776,556.66,2601.00
777,556.99,2673.00
778,557.32,2780.00
779,557.65,2834.00
780,557.98,2856.00
781,558.31,2895.00
782,558.64,3031.00
783,558.97,3200.00
784,559.30,3311.00
785,559.63,3342.00
786,559.96,3514.00
787,560.29,3739.00
788,560.62,3926.00
789,560.95,4199.00
790,561.28,4598.00
791,561.61,5098.00
792,561.94,5705.00
793,562.27,6237.00
794,562.60,7043.00
795,562.93,7948.00
796,563.25,8845.00
797,563.58,9951.00
798,563.91,11317.00
799,564.24,12633.00
800,564.57,14174.00
801,564.90,15687.00
802,565.23,17650.00
803,565.56,19876.00
804,565.89,22438.00
805,566.22,24824.00
806,566.55,27616.00
807,566.88,30256.00
808,567.21,32715.00
809,567.54,34816.00
810,567.87,36745.00
811,568.20,38171.00
812,568.53,39118.00
813,568.86,39815.00
814,569.19,40342.00
815,569.52,40315.00
816,569.85,40302.00
817,570.18,39926.00
818,570.51,39185.00
819,570.84,38187.00
820,571.17,36768.00
821,571.50,35342.00
822,571.83,33236.00
823,572.16,31012.00
824,572.49,28557.00
825,572.82,26510.00
826,573.15,24555.00
827,573.48,22962.00
828,573.81,21561.00
829,574.14,20413.00
830,574.47,19264.00
831,574.80,18267.00
832,575.13,17243.00
833,575.46,16397.00
834,575.80,15602.00
835,576.13,14793.00
836,576.46,13898.00
837,576.79,13206.00
838,577.12,12632.00
839,577.45,12190.00
840,577.78,11540.00
841,578.11,10849.00
842,578.44,10178.00
843,578.77,9491.00
844,579.10,8897.00
845,579.43,8241.00
846,579.76,7491.00
847,580.09,6974.00
848,580.42,6491.00
849,580.76,6071.00
850,581.09,5559.00
851,581.42,5193.00
852,581.75,4816.00
853,582.08,4414.00
854,582.41,4179.00
855,582.74,4009.00
856,583.07,3823.00
857,583.40,3637.00
858,583.74,3490.00
859,584.07,3328.00
860,584.40,3201.00
861,584.73,3141.00
862,585.06,3043.00
863,585.39,2923.00
864,585.72,2814.00
865,586.06,2769.00
866,586.39,2743.00
867,586.72,2708.00
868,587.05,2651.00
869,587.38,2622.00
870,587.71,2608.00
871,588.05,2490.00
872,588.38,2420.00
873,588.71,2451.00
874,589.04,2437.00
875,589.37,2428.00
876,589.71,2443.00
877,590.04,2362.00
878,590.37,2312.00
879,590.70,2355.00
880,591.03,2363.00
881,591.37,2337.00
882,591.70,2335.00
883,592.03,2333.00
884,592.36,2294.00
885,592.70,2281.00
886,593.03,2294.00
887,593.36,2229.00
888,593.69,2211.00
889,594.03,2365.00
890,594.36,2382.00
891,594.69,2342.00
892,595.03,2320.00
893,595.36,2263.00
894,595.69,2283.00
895,596.02,2298.00
896,596.36,2261.00
897,596.69,2261.00
898,597.02,2284.00
899,597.36,2332.00
900,597.69,2344.00
901,598.02,2331.00
902,598.36,2313.00
903,598.69,2369.00
904,599.02,2451.00
905,599.36,2469.00
906,599.69,2457.00
907,600.03,2548.00
908,600.36,2679.00
909,600.69,2719.00
910,601.03,2821.00
911,601.36,2968.00
912,601.70,3046.00
913,602.03,3247.00
914,602.36,3506.00
915,602.70,3881.00
916,603.03,4095.00
917,603.37,4447.00
918,603.70,4728.00
919,604.04,5018.00
920,604.37,5274.00
921,604.70,5670.00
922,605.04,5793.00
923,605.37,6209.00
924,605.71,6512.00
925,606.04,6997.00
926,606.38,7379.00
927,606.71,7993.00
928,607.05,8225.00
929,607.38,8611.00
930,607.72,8790.00
931,608.05,9206.00
932,608.39,9409.00
933,608.73,9838.00
934,609.06,9972.00
935,609.40,10480.00
936,609.73,10726.00
937,610.07,11495.00
938,610.40,11866.00
939,610.74,12429.00
940,611.08,12664.00
941,611.41,13256.00
942,611.75,13287.00
943,612.08,13459.00
944,612.42,13488.00
945,612.76,13648.00
946,613.09,13651.00
947,613.43,13909.00
948,613.77,13949.00
949,614.10,14578.00
950,614.44,14901.00
951,614.78,15437.00
952,615.11,15557.00
953,615.45,15822.00
954,615.79,15772.00
955,616.12,15388.00
956,616.46,15062.00
957,616.80,14333.00
958,617.14,13878.00
959,617.47,13229.00
960,617.81,12920.00
961,618.15,12349.00
962,618.49,12030.00
963,618.82,11423.00
964,619.16,11248.00
965,619.50,11046.00
966,619.84,10859.00
967,620.18,10724.00
968,620.51,10739.00
969,620.85,10759.00
970,621.19,10672.00
971,621.53,10390.00
972,621.87,10201.00
973,622.21,9704.00
974,622.55,9346.00
975,622.88,8590.00
976,623.22,8224.00
977,623.56,7467.00
978,623.90,7209.00
979,624.24,6623.00
980,624.58,6407.00
981,624.92,6100.00
982,625.26,6070.00
983,625.60,5816.00
984,625.94,5691.00
985,626.28,5753.00
986,626.62,5720.00
987,626.96,5841.00
988,627.30,5969.00
989,627.64,6201.00
990,627.98,6234.00
991,628.32,6330.00
992,628.66,6323.00
993,629.00,6252.00
994,629.34,6134.00
995,629.68,5860.00
996,630.02,5720.00
997,630.36,5382.00
998,630.70,5279.00
999,631.04,4860.00
1000,631.39,4726.00
1001,631.73,4428.00
1002,632.07,4261.00
1003,632.41,4143.00
1004,632.75,4115.00
1005,633.09,4041.00
1006,633.44,4081.00
1007,633.78,3989.00
1008,634.12,3972.00
1009,634.46,4104.00
1010,634.80,4035.00
1011,635.15,4109.00
1012,635.49,4210.00
1013,635.83,4452.00
